# ----------------------------------
# filename:     180sec_2chan_5kHz_pm_4kHz_FM_4Hz_Trigger1Hz.mdat 
# flipper:      0 
# temperature:  4.200 
# voltage:      5000 
# num of bins:  100 
# ----------------------------------
# 
# first  time stamp (ns): 43139465216000 
# last   time stamp (ns): 43319462715200 
# complete duration (ns): 179997499200 
#  -------
# | Histo:|
#  -------
# left edge (ns) | mid point (ns) | right egde (ns) | counts 
       0.000,  5000495.000, 10000990.000,         7259 
10000990.000, 15001485.000, 20001980.000,         9025 
20001980.000, 25002475.000, 30002970.000,        10794 
30002970.000, 35003465.000, 40003960.000,        12448 
40003960.000, 45004456.000, 50004952.000,        13902 
50004952.000, 55005446.000, 60005940.000,        15022 
60005940.000, 65006434.000, 70006928.000,        15778 
70006928.000, 75007424.000, 80007920.000,        16104 
80007920.000, 85008416.000, 90008912.000,        15987 
90008912.000, 95009408.000, 100009904.000,        15431 
100009904.000, 105010396.000, 110010888.000,        14466 
110010888.000, 115011384.000, 120011880.000,        13161 
120011880.000, 125012376.000, 130012872.000,        11592 
130012872.000, 135013364.000, 140013856.000,         9866 
140013856.000, 145014352.000, 150014848.000,         8083 
150014848.000, 155015344.000, 160015840.000,         6351 
160015840.000, 165016336.000, 170016832.000,         4791 
170016832.000, 175017328.000, 180017824.000,         3494 
180017824.000, 185018320.000, 190018816.000,         2546 
190018816.000, 195019312.000, 200019808.000,         2006 
200019808.000, 205020296.000, 210020784.000,         1897 
210020784.000, 215021280.000, 220021776.000,         2239 
220021776.000, 225022272.000, 230022768.000,         3007 
230022768.000, 235023264.000, 240023760.000,         4153 
240023760.000, 245024256.000, 250024752.000,         5593 
250024752.000, 255025248.000, 260025744.000,         7265 
260025744.000, 265026232.000, 270026720.000,         9027 
270026720.000, 275027216.000, 280027712.000,        10801 
280027712.000, 285028208.000, 290028704.000,        12463 
290028704.000, 295029200.000, 300029696.000,        13890 
300029696.000, 305030192.000, 310030688.000,        15025 
310030688.000, 315031184.000, 320031680.000,        15784 
320031680.000, 325032176.000, 330032672.000,        16105 
330032672.000, 335033168.000, 340033664.000,        15983 
340033664.000, 345034160.000, 350034656.000,        15427 
350034656.000, 355035152.000, 360035648.000,        14462 
360035648.000, 365036144.000, 370036640.000,        13159 
370036640.000, 375037136.000, 380037632.000,        11593 
380037632.000, 385038128.000, 390038624.000,         9861 
390038624.000, 395039120.000, 400039616.000,         8078 
400039616.000, 405040112.000, 410040608.000,         6342 
410040608.000, 415041088.000, 420041568.000,         4786 
420041568.000, 425042064.000, 430042560.000,         3498 
430042560.000, 435043056.000, 440043552.000,         2546 
440043552.000, 445044048.000, 450044544.000,         2004 
450044544.000, 455045040.000, 460045536.000,         1894 
460045536.000, 465046032.000, 470046528.000,         2240 
470046528.000, 475047024.000, 480047520.000,         3010 
480047520.000, 485048016.000, 490048512.000,         4156 
490048512.000, 495049008.000, 500049504.000,         5599 
500049504.000, 505050000.000, 510050496.000,         7267 
510050496.000, 515050992.000, 520051488.000,         9035 
520051488.000, 525051984.000, 530052480.000,        10805 
530052480.000, 535052960.000, 540053440.000,        12460 
540053440.000, 545053952.000, 550054464.000,        13896 
550054464.000, 555054944.000, 560055424.000,        15032 
560055424.000, 565055936.000, 570056448.000,        15780 
570056448.000, 575056928.000, 580057408.000,        16108 
580057408.000, 585057920.000, 590058432.000,        15982 
590058432.000, 595058912.000, 600059392.000,        15427 
600059392.000, 605059904.000, 610060416.000,        14460 
610060416.000, 615060896.000, 620061376.000,        13155 
620061376.000, 625061888.000, 630062400.000,        11583 
630062400.000, 635062880.000, 640063360.000,         9858 
640063360.000, 645063872.000, 650064384.000,         8075 
650064384.000, 655064864.000, 660065344.000,         6338 
660065344.000, 665065824.000, 670066304.000,         4787 
670066304.000, 675066816.000, 680067328.000,         3491 
680067328.000, 685067808.000, 690068288.000,         2547 
690068288.000, 695068800.000, 700069312.000,         1996 
700069312.000, 705069792.000, 710070272.000,         1898 
710070272.000, 715070784.000, 720071296.000,         2244 
720071296.000, 725071776.000, 730072256.000,         3012 
730072256.000, 735072768.000, 740073280.000,         4155 
740073280.000, 745073760.000, 750074240.000,         5605 
750074240.000, 755074752.000, 760075264.000,         7273 
760075264.000, 765075744.000, 770076224.000,         9009 
770076224.000, 775076736.000, 780077248.000,        10738 
780077248.000, 785077728.000, 790078208.000,        12384 
790078208.000, 795078720.000, 800079232.000,        13825 
800079232.000, 805079712.000, 810080192.000,        14941 
810080192.000, 815080704.000, 820081216.000,        15694 
820081216.000, 825081696.000, 830082176.000,        16020 
830082176.000, 835082656.000, 840083136.000,        15899 
840083136.000, 845083648.000, 850084160.000,        15336 
850084160.000, 855084640.000, 860085120.000,        14388 
860085120.000, 865085632.000, 870086144.000,        13084 
870086144.000, 875086624.000, 880087104.000,        11523 
880087104.000, 885087616.000, 890088128.000,         9808 
890088128.000, 895088608.000, 900089088.000,         8035 
900089088.000, 905089600.000, 910090112.000,         6307 
910090112.000, 915090592.000, 920091072.000,         4762 
920091072.000, 925091584.000, 930092096.000,         3474 
930092096.000, 935092576.000, 940093056.000,         2531 
940093056.000, 945093568.000, 950094080.000,         1988 
950094080.000, 955094560.000, 960095040.000,         1891 
960095040.000, 965095552.000, 970096064.000,         2231 
970096064.000, 975096544.000, 980097024.000,         2984 
980097024.000, 985097536.000, 990098048.000,         4130 
990098048.000, 995098528.000, 1000099008.000,         5567 
